Wavenumber,Intensity
650.4205,-0.206542
652.2841,-0.209079
654.1478,-0.211296
656.0115,-0.218643
657.8751,-0.228815
659.7388,-0.234434
661.6025,-0.236565
663.4661,-0.231344
665.3298,-0.219658
667.1935,-0.203061
669.0571,-0.181097
670.9208,-0.174893
672.7845,-0.186234
674.6481,-0.207517
676.5118,-0.224673
678.3755,-0.237784
680.2392,-0.248607
682.1028,-0.256796
683.9665,-0.264877
685.8302,-0.270996
687.6938,-0.273951
689.5575,-0.275875
691.4212,-0.278800
693.2848,-0.282984
695.1485,-0.287292
697.0122,-0.288755
698.8758,-0.287160
700.7395,-0.284730
702.6032,-0.279656
704.4669,-0.273171
706.3305,-0.272348
708.1942,-0.276994
710.0579,-0.283170
711.9215,-0.289504
713.7852,-0.294838
715.6489,-0.298360
717.5125,-0.298251
719.3762,-0.290085
721.2399,-0.262294
723.1035,-0.202075
724.9672,-0.109131
726.8309,-0.010862
728.6945,0.061172
730.5582,0.097641
732.4219,0.094739
734.2856,0.044387
736.1492,-0.042022
738.0129,-0.133048
739.8766,-0.200986
741.7402,-0.240846
743.6039,-0.262659
745.4676,-0.278336
747.3312,-0.292547
749.1949,-0.305698
751.0586,-0.317188
752.9222,-0.326284
754.7859,-0.332414
756.6496,-0.335723
758.5132,-0.335625
760.3769,-0.332157
762.2406,-0.325701
764.1043,-0.318403
765.9679,-0.315454
767.8316,-0.319076
769.6953,-0.325624
771.5589,-0.330554
773.4226,-0.333599
775.2863,-0.336234
777.1499,-0.339226
779.0136,-0.342262
780.8773,-0.344559
782.7409,-0.346964
784.6046,-0.350459
786.4683,-0.353441
788.3320,-0.354527
790.1956,-0.352414
792.0593,-0.348441
793.9230,-0.347085
795.7866,-0.349345
797.6503,-0.352527
799.5140,-0.353966
801.3776,-0.353330
803.2413,-0.350966
805.1050,-0.346667
806.9686,-0.339310
808.8323,-0.327743
810.6960,-0.311976
812.5596,-0.297150
814.4233,-0.292593
816.2870,-0.301348
818.1507,-0.314966
820.0143,-0.322994
821.8780,-0.322504
823.7417,-0.316139
825.6053,-0.307571
827.4690,-0.299813
829.3327,-0.295333
831.1963,-0.294409
833.0600,-0.295838
834.9237,-0.298601
836.7873,-0.301504
838.6510,-0.303254
840.5147,-0.303558
842.3784,-0.303137
844.2420,-0.302543
846.1057,-0.300877
847.9694,-0.297710
849.8330,-0.292629
851.6967,-0.284609
853.5604,-0.274241
855.4240,-0.264859
857.2877,-0.259096
859.1514,-0.255895
861.0150,-0.252375
862.8787,-0.246838
864.7424,-0.238638
866.6060,-0.227577
868.4697,-0.213620
870.3334,-0.197939
872.1971,-0.185430
874.0607,-0.180687
875.9244,-0.183846
877.7881,-0.191362
879.6517,-0.198829
881.5154,-0.204272
883.3791,-0.207250
885.2427,-0.207587
887.1064,-0.205635
888.9701,-0.202702
890.8337,-0.198894
892.6974,-0.193355
894.5611,-0.186242
896.4247,-0.177880
898.2884,-0.168167
900.1521,-0.156965
902.0158,-0.144700
903.8794,-0.132186
905.7431,-0.120318
907.6068,-0.109895
909.4704,-0.101428
911.3341,-0.095146
913.1978,-0.091402
915.0614,-0.089691
916.9251,-0.088746
918.7888,-0.087913
920.6524,-0.085900
922.5161,-0.081555
924.3798,-0.074800
926.2435,-0.065886
928.1071,-0.055104
929.9708,-0.043171
931.8345,-0.031331
933.6981,-0.019288
935.5618,-0.006630
937.4255,0.006262
939.2891,0.018918
941.1528,0.031617
943.0165,0.045778
944.8801,0.063431
946.7438,0.084809
948.6075,0.108593
950.4711,0.133264
952.3348,0.158219
954.1985,0.184249
956.0622,0.213272
957.9258,0.246132
959.7895,0.283223
961.6532,0.323598
963.5168,0.365151
965.3805,0.405496
967.2442,0.443042
969.1078,0.477494
970.9715,0.508695
972.8352,0.535850
974.6988,0.558801
976.5625,0.575973
978.4262,0.588165
980.2899,0.595877
982.1535,0.601184
984.0172,0.605171
985.8809,0.610058
987.7445,0.615492
989.6082,0.622653
991.4719,0.633094
993.3355,0.648066
995.1992,0.668773
997.0629,0.696660
998.9265,0.731773
1000.7902,0.771195
1002.6539,0.806917
1004.5175,0.836603
1006.3812,0.858796
1008.2449,0.869570
1010.1086,0.864079
1011.9722,0.843083
1013.8359,0.805264
1015.6996,0.752721
1017.5632,0.700179
1019.4269,0.663891
1021.2906,0.646785
1023.1542,0.643328
1025.0179,0.645882
1026.8816,0.651639
1028.7452,0.660613
1030.6089,0.673852
1032.4726,0.690278
1034.3362,0.708453
1036.1999,0.725687
1038.0636,0.739542
1039.9273,0.746810
1041.7909,0.747069
1043.6546,0.742263
1045.5183,0.737076
1047.3819,0.732802
1049.2456,0.730152
1051.1093,0.728939
1052.9729,0.730659
1054.8366,0.734515
1056.7003,0.740016
1058.5639,0.747921
1060.4276,0.760316
1062.2913,0.776172
1064.1550,0.794306
1066.0186,0.812563
1067.8823,0.829388
1069.7460,0.843349
1071.6096,0.855287
1073.4733,0.864956
1075.3370,0.874992
1077.2006,0.886752
1079.0643,0.899627
1080.9280,0.908530
1082.7916,0.910132
1084.6553,0.902023
1086.5190,0.884941
1088.3826,0.860579
1090.2463,0.833764
1092.1100,0.807411
1093.9737,0.785369
1095.8373,0.769346
1097.7010,0.759731
1099.5647,0.755924
1101.4283,0.759265
1103.2920,0.771547
1105.1557,0.795926
1107.0193,0.830659
1108.8830,0.866421
1110.7467,0.887117
1112.6103,0.886518
1114.4740,0.870464
1116.3377,0.850687
1118.2014,0.834811
1120.0650,0.826105
1121.9287,0.823906
1123.7924,0.827820
1125.6560,0.835181
1127.5197,0.845928
1129.3834,0.857478
1131.2470,0.867430
1133.1107,0.875018
1134.9744,0.880713
1136.8380,0.881001
1138.7017,0.874673
1140.5654,0.862769
1142.4290,0.845563
1144.2927,0.821732
1146.1564,0.794609
1148.0201,0.764978
1149.8837,0.734005
1151.7474,0.703628
1153.6111,0.674926
1155.4747,0.648289
1157.3384,0.626562
1159.2021,0.611651
1161.0657,0.604084
1162.9294,0.600818
1164.7931,0.596882
1166.6567,0.587091
1168.5204,0.571924
1170.3841,0.553227
1172.2477,0.533004
1174.1114,0.512129
1175.9751,0.493493
1177.8388,0.479793
1179.7024,0.471220
1181.5661,0.463387
1183.4298,0.451054
1185.2934,0.431163
1187.1571,0.404556
1189.0208,0.373491
1190.8844,0.340766
1192.7481,0.308610
1194.6118,0.278475
1196.4754,0.250794
1198.3391,0.225898
1200.2028,0.203513
1202.0665,0.183666
1203.9301,0.166272
1205.7938,0.151515
1207.6575,0.139704
1209.5211,0.130990
1211.3848,0.125299
1213.2485,0.122641
1215.1121,0.123769
1216.9758,0.130136
1218.8395,0.142151
1220.7031,0.160044
1222.5668,0.183220
1224.4305,0.209890
1226.2941,0.237668
1228.1578,0.265019
1230.0215,0.289805
1231.8852,0.310959
1233.7488,0.327792
1235.6125,0.340815
1237.4762,0.352147
1239.3398,0.364259
1241.2035,0.378703
1243.0672,0.396286
1244.9308,0.416655
1246.7945,0.439153
1248.6582,0.461598
1250.5218,0.481797
1252.3855,0.496787
1254.2492,0.504175
1256.1129,0.503458
1257.9765,0.497917
1259.8402,0.492312
1261.7039,0.492283
1263.5675,0.500443
1265.4312,0.516771
1267.2949,0.539366
1269.1585,0.567247
1271.0222,0.598043
1272.8859,0.630534
1274.7495,0.663980
1276.6132,0.697609
1278.4769,0.728313
1280.3405,0.754660
1282.2042,0.776404
1284.0679,0.796103
1285.9316,0.817116
1287.7952,0.841316
1289.6589,0.865730
1291.5226,0.891045
1293.3862,0.915497
1295.2499,0.938530
1297.1136,0.958366
1298.9772,0.974596
1300.8409,0.987372
1302.7046,0.999293
1304.5682,1.010527
1306.4319,1.020255
1308.2956,1.021273
1310.1592,1.009354
1312.0229,0.977904
1313.8866,0.926294
1315.7503,0.860897
1317.6139,0.787679
1319.4776,0.709247
1321.3413,0.632773
1323.2049,0.561498
1325.0686,0.497921
1326.9323,0.443452
1328.7959,0.398044
1330.6596,0.360908
1332.5233,0.332741
1334.3869,0.313571
1336.2506,0.301392
1338.1143,0.289175
1339.9780,0.269092
1341.8416,0.242212
1343.7053,0.215828
1345.5690,0.190384
1347.4326,0.167690
1349.2963,0.148332
1351.1600,0.132734
1353.0236,0.121291
1354.8873,0.113241
1356.7510,0.109644
1358.6146,0.113737
1360.4783,0.126874
1362.3420,0.146562
1364.2056,0.166561
1366.0693,0.192091
1367.9330,0.227612
1369.7967,0.268992
1371.6603,0.311552
1373.5240,0.350376
1375.3877,0.372041
1377.2513,0.375220
1379.1150,0.364119
1380.9787,0.341582
1382.8423,0.314585
1384.7060,0.286989
1386.5697,0.256684
1388.4333,0.223485
1390.2970,0.198951
1392.1607,0.182251
1394.0244,0.168659
1395.8880,0.154732
1397.7517,0.146007
1399.6154,0.139091
1401.4790,0.133476
1403.3427,0.135117
1405.2064,0.139601
1407.0700,0.143626
1408.9337,0.137869
1410.7974,0.111523
1412.6610,0.070517
1414.5247,0.036251
1416.3884,0.015952
1418.2520,0.003887
1420.1157,-0.009680
1421.9794,-0.015431
1423.8431,-0.013572
1425.7067,-0.012046
1427.5704,-0.006665
1429.4341,0.001140
1431.2977,0.011667
1433.1614,0.028966
1435.0251,0.051803
1436.8887,0.064901
1438.7524,0.060738
1440.6161,0.058719
1442.4797,0.061072
1444.3434,0.070023
1446.2071,0.082406
1448.0707,0.092950
1449.9344,0.099766
1451.7981,0.112782
1453.6618,0.134452
1455.5254,0.167363
1457.3891,0.191505
1459.2528,0.194569
1461.1164,0.202141
1462.9801,0.218363
1464.8438,0.231853
1466.7074,0.235643
1468.5711,0.242186
1470.4348,0.254992
1472.2984,0.266106
1474.1621,0.258092
1476.0258,0.238543
1477.8895,0.210623
1479.7531,0.181173
1481.6168,0.152222
1483.4805,0.130165
1485.3441,0.118654
1487.2078,0.109326
1489.0715,0.091550
1490.9351,0.065099
1492.7988,0.044192
1494.6625,0.033488
1496.5261,0.021869
1498.3898,0.010319
1500.2535,0.006976
1502.1171,0.018385
1503.9808,0.046818
1505.8445,0.081797
1507.7082,0.082454
1509.5718,0.059843
1511.4355,0.036651
1513.2992,0.010355
1515.1628,-0.012980
1517.0265,-0.033456
1518.8902,-0.046245
1520.7538,-0.048013
1522.6175,-0.052657
1524.4812,-0.051311
1526.3448,-0.044789
1528.2085,-0.034036
1530.0722,-0.018230
1531.9359,0.004544
1533.7995,0.032760
1535.6632,0.056218
1537.5269,0.089276
1539.3905,0.138413
1541.2542,0.169401
1543.1179,0.172659
1544.9815,0.174421
1546.8452,0.176116
1548.7089,0.179439
1550.5725,0.178988
1552.4362,0.177639
1554.2999,0.179636
1556.1635,0.183947
1558.0272,0.178500
1559.8909,0.135336
1561.7546,0.099623
1563.6182,0.076611
1565.4819,0.054208
1567.3456,0.036798
1569.2092,0.020314
1571.0729,0.003752
1572.9366,-0.000345
1574.8002,0.003811
1576.6639,0.002240
1578.5276,-0.008210
1580.3912,-0.019647
1582.2549,-0.035260
1584.1186,-0.052172
1585.9822,-0.068801
1587.8459,-0.083622
1589.7096,-0.096157
1591.5733,-0.105889
1593.4369,-0.111975
1595.3006,-0.114714
1597.1643,-0.115239
1599.0279,-0.113952
1600.8916,-0.111632
1602.7553,-0.109014
1604.6189,-0.105945
1606.4826,-0.103444
1608.3463,-0.105161
1610.2099,-0.112609
1612.0736,-0.120286
1613.9373,-0.125255
1615.8010,-0.128336
1617.6646,-0.137197
1619.5283,-0.142270
1621.3920,-0.139963
1623.2556,-0.134912
1625.1193,-0.133771
1626.9830,-0.132598
1628.8466,-0.131691
1630.7103,-0.127151
1632.5740,-0.116025
1634.4376,-0.098062
1636.3013,-0.089930
1638.1650,-0.096062
1640.0286,-0.098786
1641.8923,-0.094523
1643.7560,-0.082732
1645.6197,-0.067585
1647.4833,-0.056281
1649.3470,-0.048608
1651.2107,-0.029213
1653.0743,-0.001736
1654.9380,-0.006010
1656.8017,-0.013422
1658.6653,-0.007222
1660.5290,0.008913
1662.3927,0.029899
1664.2563,0.048623
1666.1200,0.068790
1667.9837,0.101876
1669.8474,0.144451
1671.7110,0.178368
1673.5747,0.211824
1675.4384,0.256561
1677.3020,0.291902
1679.1657,0.321278
1681.0294,0.356680
1682.8930,0.393703
1684.7567,0.411903
1686.6204,0.398961
1688.4840,0.383286
1690.3477,0.371602
1692.2114,0.365612
1694.0750,0.368623
1695.9387,0.388525
1697.8024,0.411562
1699.6661,0.451161
1701.5297,0.493328
1703.3934,0.520753
1705.2571,0.553930
1707.1207,0.577609
1708.9844,0.571624
1710.8481,0.548353
1712.7117,0.520044
1714.5754,0.493122
1716.4391,0.465746
1718.3027,0.438646
1720.1664,0.418760
1722.0301,0.415254
1723.8937,0.423432
1725.7574,0.441109
1727.6211,0.467283
1729.4848,0.506602
1731.3484,0.552795
1733.2121,0.596839
1735.0758,0.614564
1736.9394,0.595969
1738.8031,0.542096
1740.6668,0.450275
1742.5304,0.350491
1744.3941,0.252188
1746.2578,0.167063
1748.1214,0.096142
1749.9851,0.037791
1751.8488,-0.008200
1753.7125,-0.039052
1755.5761,-0.055678
1757.4398,-0.067375
1759.3035,-0.074646
1761.1671,-0.078964
1763.0308,-0.082716
1764.8945,-0.083393
1766.7581,-0.078025
1768.6218,-0.069432
1770.4855,-0.061595
1772.3491,-0.055008
1774.2128,-0.056347
1776.0765,-0.058227
1777.9401,-0.056661
1779.8038,-0.050367
1781.6675,-0.045499
1783.5312,-0.041569
1785.3948,-0.038741
1787.2585,-0.034029
1789.1222,-0.025606
1790.9858,-0.013984
1792.8495,-0.005578
1794.7132,-0.003701
1796.5768,-0.001180
1798.4405,0.005256
1800.3042,0.013427
1802.1678,0.019200
1804.0315,0.022006
1805.8952,0.025927
1807.7589,0.032688
1809.6225,0.040760
1811.4862,0.047470
1813.3499,0.051303
1815.2135,0.055495
1817.0772,0.061235
1818.9409,0.066336
1820.8045,0.071973
1822.6682,0.079267
1824.5319,0.088988
1826.3955,0.096390
1828.2592,0.102333
1830.1229,0.108996
1831.9865,0.111438
1833.8502,0.112837
1835.7139,0.116953
1837.5776,0.123048
1839.4412,0.128478
1841.3049,0.135712
1843.1686,0.146998
1845.0322,0.156327
1846.8959,0.158071
1848.7596,0.158931
1850.6232,0.161706
1852.4869,0.166469
1854.3506,0.171286
1856.2142,0.176609
1858.0779,0.181674
1859.9416,0.186983
1861.8052,0.191095
1863.6689,0.196189
1865.5326,0.202837
1867.3963,0.212954
1869.2599,0.221020
1871.1236,0.221737
1872.9873,0.221275
1874.8509,0.224104
1876.7146,0.228284
1878.5783,0.232789
1880.4419,0.237097
1882.3056,0.241286
1884.1693,0.245346
1886.0329,0.249357
1887.8966,0.253920
1889.7603,0.259614
1891.6240,0.262123
1893.4876,0.263828
1895.3513,0.267212
1897.2150,0.270169
1899.0786,0.271702
1900.9423,0.274164
1902.8060,0.277027
1904.6696,0.279927
1906.5333,0.282564
1908.3970,0.285894
1910.2606,0.288335
1912.1243,0.289614
1913.9880,0.290911
1915.8516,0.293772
1917.7153,0.298256
1919.5790,0.300144
1921.4427,0.300960
1923.3063,0.303044
1925.1700,0.303101
1927.0337,0.302145
1928.8973,0.302677
1930.7610,0.304048
1932.6247,0.304916
1934.4883,0.305972
1936.3520,0.306605
1938.2157,0.307038
1940.0793,0.307777
1941.9430,0.310244
1943.8067,0.310562
1945.6704,0.308885
1947.5340,0.307086
1949.3977,0.306192
1951.2614,0.304843
1953.1250,0.303361
1954.9887,0.302116
1956.8524,0.300842
1958.7160,0.299058
1960.5797,0.297414
1962.4434,0.295732
1964.3070,0.294146
1966.1707,0.293007
1968.0344,0.291593
1969.8980,0.289083
1971.7617,0.286327
1973.6254,0.283725
1975.4891,0.281702
1977.3527,0.279568
1979.2164,0.277331
1981.0801,0.275042
1982.9437,0.273194
1984.8074,0.271005
1986.6711,0.269073
1988.5347,0.267058
1990.3984,0.264872
1992.2621,0.261938
1994.1257,0.258337
1995.9894,0.254751
1997.8531,0.251819
1999.7167,0.249225
2001.5804,0.246278
2003.4441,0.243340
2005.3078,0.240683
2007.1714,0.237550
2009.0351,0.234370
2010.8988,0.231624
2012.7624,0.228861
2014.6261,0.226126
2016.4898,0.223935
2018.3534,0.220946
2020.2171,0.217208
2022.0808,0.213757
2023.9444,0.210601
2025.8081,0.207485
2027.6718,0.204717
2029.5355,0.201764
2031.3991,0.198800
2033.2628,0.195868
2035.1265,0.193108
2036.9901,0.190314
2038.8538,0.187490
2040.7175,0.184696
2042.5811,0.181704
2044.4448,0.178503
2046.3085,0.175603
2048.1721,0.172642
2050.0358,0.169775
2051.8995,0.167163
2053.7631,0.164536
2055.6268,0.161600
2057.4905,0.158969
2059.3542,0.156719
2061.2178,0.154374
2063.0815,0.151837
2064.9452,0.149311
2066.8088,0.146276
2068.6725,0.143382
2070.5362,0.140928
2072.3998,0.138682
2074.2635,0.136086
2076.1272,0.133501
2077.9908,0.131006
2079.8545,0.128443
2081.7182,0.125805
2083.5819,0.123535
2085.4455,0.121332
2087.3092,0.118795
2089.1729,0.116081
2091.0365,0.113659
2092.9002,0.111286
2094.7639,0.108959
2096.6275,0.106706
2098.4912,0.104451
2100.3549,0.102113
2102.2185,0.099949
2104.0822,0.097653
2105.9459,0.095441
2107.8095,0.093291
2109.6732,0.091113
2111.5369,0.088872
2113.4006,0.086860
2115.2642,0.084742
2117.1279,0.082645
2118.9916,0.080615
2120.8552,0.078722
2122.7189,0.076874
2124.5826,0.075029
2126.4462,0.073185
2128.3099,0.071374
2130.1736,0.069422
2132.0372,0.067589
2133.9009,0.065906
2135.7646,0.064185
2137.6282,0.062382
2139.4919,0.060814
2141.3556,0.059123
2143.2193,0.057384
2145.0829,0.055857
2146.9466,0.054396
2148.8103,0.052728
2150.6739,0.051051
2152.5376,0.049480
2154.4013,0.048182
2156.2649,0.046900
2158.1286,0.045506
2159.9923,0.044042
2161.8559,0.042725
2163.7196,0.041428
2165.5833,0.040028
2167.4470,0.038683
2169.3106,0.037602
2171.1743,0.036462
2173.0380,0.035375
2174.9016,0.034486
2176.7653,0.033615
2178.6290,0.032417
2180.4926,0.031385
2182.3563,0.030581
2184.2200,0.029839
2186.0836,0.028952
2187.9473,0.028225
2189.8110,0.027556
2191.6746,0.026828
2193.5383,0.026030
2195.4020,0.025386
2197.2657,0.024910
2199.1293,0.024499
2200.9930,0.024000
2202.8567,0.023635
2204.7203,0.023231
2206.5840,0.022774
2208.4477,0.022305
2210.3113,0.021969
2212.1750,0.021766
2214.0387,0.021597
2215.9023,0.021331
2217.7660,0.021176
2219.6297,0.021076
2221.4934,0.021109
2223.3570,0.020922
2225.2207,0.020855
2227.0844,0.021001
2228.9480,0.021102
2230.8117,0.021243
2232.6754,0.021615
2234.5390,0.021966
2236.4027,0.022221
2238.2664,0.022395
2240.1300,0.022963
2241.9937,0.023790
2243.8574,0.024584
2245.7210,0.025525
2247.5847,0.026813
2249.4484,0.028174
2251.3121,0.029466
2253.1757,0.030831
2255.0394,0.032298
2256.9031,0.033445
2258.7667,0.034574
2260.6304,0.035841
2262.4941,0.036970
2264.3577,0.038012
2266.2214,0.039178
2268.0851,0.040039
2269.9487,0.040664
2271.8124,0.041309
2273.6761,0.041911
2275.5397,0.042182
2277.4034,0.042383
2279.2671,0.042433
2281.1308,0.042300
2282.9944,0.042113
2284.8581,0.041545
2286.7218,0.040596
2288.5854,0.039927
2290.4491,0.039276
2292.3128,0.038691
2294.1764,0.037889
2296.0401,0.037045
2297.9038,0.036249
2299.7674,0.035363
2301.6311,0.034309
2303.4948,0.033066
2305.3585,0.031619
2307.2221,0.030426
2309.0858,0.029410
2310.9495,0.028057
2312.8131,0.026285
2314.6768,0.024512
2316.5405,0.022796
2318.4041,0.021262
2320.2678,0.019806
2322.1315,0.018969
2323.9951,0.019011
2325.8588,0.019697
2327.7225,0.019813
2329.5861,0.019386
2331.4498,0.019657
2333.3135,0.021110
2335.1772,0.023228
2337.0408,0.024588
2338.9045,0.026222
2340.7682,0.028093
2342.6318,0.029612
2344.4955,0.031870
2346.3592,0.034559
2348.2228,0.037753
2350.0865,0.036565
2351.9502,0.032216
2353.8138,0.030572
2355.6775,0.029534
2357.5412,0.031341
2359.4049,0.037205
2361.2685,0.044017
2363.1322,0.050746
2364.9959,0.057481
2366.8595,0.064141
2368.7232,0.070680
2370.5869,0.077644
2372.4505,0.084730
2374.3142,0.091131
2376.1779,0.097270
2378.0415,0.103056
2379.9052,0.107908
2381.7689,0.112123
2383.6325,0.115827
2385.4962,0.119118
2387.3599,0.121575
2389.2236,0.123905
2391.0872,0.126524
2392.9509,0.129072
2394.8146,0.131435
2396.6782,0.133886
2398.5419,0.136425
2400.4056,0.138903
2402.2692,0.141337
2404.1329,0.143995
2405.9966,0.146641
2407.8602,0.149132
2409.7239,0.151711
2411.5876,0.154427
2413.4512,0.157034
2415.3149,0.159771
2417.1786,0.162500
2419.0423,0.165060
2420.9059,0.167778
2422.7696,0.170755
2424.6333,0.173665
2426.4969,0.176360
2428.3606,0.179070
2430.2243,0.182070
2432.0879,0.184948
2433.9516,0.187717
2435.8153,0.190665
2437.6789,0.193667
2439.5426,0.196638
2441.4063,0.199766
2443.2700,0.202842
2445.1336,0.205677
2446.9973,0.208488
2448.8610,0.211912
2450.7246,0.215257
2452.5883,0.218223
2454.4520,0.221374
2456.3156,0.224584
2458.1793,0.227865
2460.0430,0.231261
2461.9066,0.234401
2463.7703,0.237628
2465.6340,0.240996
2467.4976,0.244316
2469.3613,0.247582
2471.2250,0.250905
2473.0887,0.254387
2474.9523,0.258009
2476.8160,0.261327
2478.6797,0.264614
2480.5433,0.268154
2482.4070,0.271476
2484.2707,0.274570
2486.1343,0.277762
2487.9980,0.280984
2489.8617,0.284418
2491.7253,0.287897
2493.5890,0.291013
2495.4527,0.294348
2497.3164,0.297776
2499.1800,0.300916
2501.0437,0.304262
2502.9074,0.307544
2504.7710,0.310545
2506.6347,0.313852
2508.4984,0.317469
2510.3620,0.320785
2512.2257,0.323988
2514.0894,0.327193
2515.9530,0.330426
2517.8167,0.333660
2519.6804,0.336811
2521.5440,0.339624
2523.4077,0.342639
2525.2714,0.345737
2527.1351,0.348877
2528.9987,0.351958
2530.8624,0.354910
2532.7261,0.357830
2534.5897,0.360634
2536.4534,0.363311
2538.3171,0.365986
2540.1807,0.368723
2542.0444,0.371634
2543.9081,0.374700
2545.7717,0.377609
2547.6354,0.379935
2549.4991,0.382429
2551.3627,0.385048
2553.2264,0.387571
2555.0901,0.390089
2556.9538,0.392492
2558.8174,0.394878
2560.6811,0.397301
2562.5448,0.399584
2564.4084,0.402049
2566.2721,0.404334
2568.1358,0.406537
2569.9994,0.408751
2571.8631,0.410696
2573.7268,0.412437
2575.5904,0.414843
2577.4541,0.417259
2579.3178,0.418960
2581.1815,0.420401
2583.0451,0.422224
2584.9088,0.424259
2586.7725,0.425748
2588.6361,0.426989
2590.4998,0.428837
2592.3635,0.430692
2594.2271,0.432433
2596.0908,0.434013
2597.9545,0.435147
2599.8181,0.436056
2601.6818,0.437667
2603.5455,0.439047
2605.4091,0.439592
2607.2728,0.440538
2609.1365,0.441430
2611.0002,0.441735
2612.8638,0.442782
2614.7275,0.444383
2616.5912,0.445379
2618.4548,0.445845
2620.3185,0.446151
2622.1822,0.446422
2624.0458,0.446948
2625.9095,0.447812
2627.7732,0.448415
2629.6368,0.448568
2631.5005,0.448777
2633.3642,0.449296
2635.2279,0.449725
2637.0915,0.449571
2638.9552,0.449233
2640.8189,0.449491
2642.6825,0.449937
2644.5462,0.450025
2646.4099,0.449886
2648.2735,0.449534
2650.1372,0.449162
2652.0009,0.448996
2653.8645,0.448912
2655.7282,0.448915
2657.5919,0.448933
2659.4555,0.448238
2661.3192,0.447278
2663.1829,0.446626
2665.0466,0.446125
2666.9102,0.445796
2668.7739,0.445487
2670.6376,0.444657
2672.5012,0.444345
2674.3649,0.443907
2676.2286,0.442354
2678.0922,0.440719
2679.9559,0.439933
2681.8196,0.439319
2683.6832,0.438425
2685.5469,0.437481
2687.4106,0.436386
2689.2742,0.435112
2691.1379,0.434319
2693.0016,0.433570
2694.8653,0.432380
2696.7289,0.431209
2698.5926,0.430067
2700.4563,0.428888
2702.3199,0.427380
2704.1836,0.425890
2706.0473,0.424896
2707.9109,0.423579
2709.7746,0.422312
2711.6383,0.421309
2713.5019,0.419901
2715.3656,0.418150
2717.2293,0.417143
2719.0930,0.416640
2720.9566,0.415558
2722.8203,0.414218
2724.6840,0.412888
2726.5476,0.411176
2728.4113,0.409731
2730.2750,0.408279
2732.1386,0.406667
2734.0023,0.405093
2735.8660,0.403706
2737.7296,0.402137
2739.5933,0.400530
2741.4570,0.398761
2743.3206,0.396965
2745.1843,0.395787
2747.0480,0.394305
2748.9117,0.392406
2750.7753,0.390769
2752.6390,0.389290
2754.5027,0.387520
2756.3663,0.385486
2758.2300,0.383771
2760.0937,0.382432
2761.9573,0.381217
2763.8210,0.379537
2765.6847,0.377491
2767.5483,0.375533
2769.4120,0.373799
2771.2757,0.372314
2773.1394,0.370933
2775.0030,0.369153
2776.8667,0.367218
2778.7304,0.365734
2780.5940,0.364076
2782.4577,0.362169
2784.3214,0.360364
2786.1850,0.358936
2788.0487,0.357881
2789.9124,0.356782
2791.7760,0.355228
2793.6397,0.353452
2795.5034,0.352119
2797.3670,0.351462
2799.2307,0.350949
2801.0944,0.349993
2802.9581,0.349100
2804.8217,0.348427
2806.6854,0.348195
2808.5491,0.347789
2810.4127,0.347016
2812.2764,0.346452
2814.1401,0.346182
2816.0037,0.345907
2817.8674,0.345358
2819.7311,0.344818
2821.5947,0.343929
2823.4584,0.342243
2825.3221,0.341016
2827.1857,0.339983
2829.0494,0.338414
2830.9131,0.337147
2832.7768,0.336144
2834.6404,0.335247
2836.5041,0.334454
2838.3678,0.333510
2840.2314,0.332674
2842.0951,0.332995
2843.9588,0.334237
2845.8224,0.335401
2847.6861,0.337101
2849.5498,0.339154
2851.4134,0.341282
2853.2771,0.343233
2855.1408,0.345048
2857.0045,0.346568
2858.8681,0.347793
2860.7318,0.348592
2862.5955,0.348644
2864.4591,0.349232
2866.3228,0.350602
2868.1865,0.351824
2870.0501,0.353481
2871.9138,0.355444
2873.7775,0.356110
2875.6411,0.356264
2877.5048,0.356681
2879.3685,0.356755
2881.2321,0.356136
2883.0958,0.355763
2884.9595,0.355750
2886.8232,0.355889
2888.6868,0.356392
2890.5505,0.356780
2892.4142,0.356843
2894.2778,0.356461
2896.1415,0.355634
2898.0052,0.354439
2899.8688,0.353636
2901.7325,0.353399
2903.5962,0.353299
2905.4598,0.353204
2907.3235,0.353525
2909.1872,0.354831
2911.0509,0.355833
2912.9145,0.356012
2914.7782,0.357402
2916.6419,0.359867
2918.5055,0.362604
2920.3692,0.365167
2922.2329,0.367798
2924.0965,0.370937
2925.9602,0.374237
2927.8239,0.377228
2929.6875,0.380035
2931.5512,0.382321
2933.4149,0.384598
2935.2785,0.386378
2937.1422,0.387208
2939.0059,0.388030
2940.8696,0.389389
2942.7332,0.390495
2944.5969,0.390859
2946.4606,0.391930
2948.3242,0.394389
2950.1879,0.396620
2952.0516,0.398096
2953.9152,0.400445
2955.7789,0.403682
2957.6426,0.406921
2959.5062,0.409949
2961.3699,0.412464
2963.2336,0.414293
2965.0972,0.415263
2966.9609,0.415584
2968.8246,0.414868
2970.6883,0.412914
2972.5519,0.408957
2974.4156,0.403903
2976.2793,0.398866
2978.1429,0.393542
2980.0066,0.387605
2981.8703,0.380768
2983.7339,0.374042
2985.5976,0.367608
2987.4613,0.360665
2989.3249,0.354592
2991.1886,0.349460
2993.0523,0.344049
2994.9160,0.339208
2996.7796,0.335309
2998.6433,0.331401
3000.5070,0.327581
3002.3706,0.324845
3004.2343,0.322507
3006.0980,0.320126
3007.9616,0.318285
3009.8253,0.316616
3011.6890,0.314777
3013.5526,0.312637
3015.4163,0.310719
3017.2800,0.309746
3019.1436,0.309359
3021.0073,0.309143
3022.8710,0.309632
3024.7347,0.309916
3026.5983,0.309422
3028.4620,0.309317
3030.3257,0.310115
3032.1893,0.311335
3034.0530,0.311772
3035.9167,0.311492
3037.7803,0.311782
3039.6440,0.312460
3041.5077,0.313363
3043.3713,0.314632
3045.2350,0.315537
3047.0987,0.315735
3048.9624,0.316785
3050.8260,0.318105
3052.6897,0.318382
3054.5534,0.319202
3056.4170,0.321012
3058.2807,0.322552
3060.1444,0.323012
3062.0080,0.323654
3063.8717,0.324944
3065.7354,0.325997
3067.5990,0.327092
3069.4627,0.328076
3071.3264,0.329007
3073.1900,0.329954
3075.0537,0.330734
3076.9174,0.331299
3078.7811,0.331736
3080.6447,0.332190
3082.5084,0.332768
3084.3721,0.332897
3086.2357,0.333141
3088.0994,0.334008
3089.9631,0.334964
3091.8267,0.335379
3093.6904,0.335762
3095.5541,0.336411
3097.4177,0.337536
3099.2814,0.338817
3101.1451,0.340124
3103.0087,0.341183
3104.8724,0.342057
3106.7361,0.342572
3108.5998,0.343175
3110.4634,0.344608
3112.3271,0.345986
3114.1908,0.347100
3116.0544,0.347941
3117.9181,0.348934
3119.7818,0.350766
3121.6454,0.352374
3123.5091,0.353021
3125.3728,0.353974
3127.2364,0.355455
3129.1001,0.356733
3130.9638,0.357576
3132.8275,0.358739
3134.6911,0.360594
3136.5548,0.362109
3138.4185,0.363130
3140.2821,0.364219
3142.1458,0.365683
3144.0095,0.367183
3145.8731,0.368722
3147.7368,0.370213
3149.6005,0.372074
3151.4641,0.373707
3153.3278,0.374556
3155.1915,0.375965
3157.0551,0.377590
3158.9188,0.379086
3160.7825,0.380834
3162.6462,0.381981
3164.5098,0.382480
3166.3735,0.384190
3168.2372,0.386547
3170.1008,0.388019
3171.9645,0.389454
3173.8282,0.391140
3175.6918,0.392989
3177.5555,0.394387
3179.4192,0.395319
3181.2828,0.396600
3183.1465,0.398583
3185.0102,0.400771
3186.8739,0.402610
3188.7375,0.403660
3190.6012,0.404931
3192.4649,0.407029
3194.3285,0.408640
3196.1922,0.409798
3198.0559,0.411003
3199.9195,0.412622
3201.7832,0.414514
3203.6469,0.415965
3205.5105,0.417498
3207.3742,0.419102
3209.2379,0.420379
3211.1015,0.421183
3212.9652,0.422547
3214.8289,0.424803
3216.6926,0.427107
3218.5562,0.428412
3220.4199,0.429679
3222.2836,0.430642
3224.1472,0.431859
3226.0109,0.434091
3227.8746,0.436225
3229.7382,0.437868
3231.6019,0.438719
3233.4656,0.439665
3235.3292,0.441166
3237.1929,0.442451
3239.0566,0.444767
3240.9202,0.446474
3242.7839,0.447539
3244.6476,0.448846
3246.5113,0.450154
3248.3749,0.451132
3250.2386,0.452198
3252.1023,0.453799
3253.9659,0.455731
3255.8296,0.457681
3257.6933,0.457924
3259.5569,0.459030
3261.4206,0.461820
3263.2843,0.462730
3265.1479,0.463573
3267.0116,0.465709
3268.8753,0.468039
3270.7390,0.468432
3272.6026,0.469046
3274.4663,0.470995
3276.3300,0.472604
3278.1936,0.473208
3280.0573,0.473794
3281.9210,0.475147
3283.7846,0.476889
3285.6483,0.478327
3287.5120,0.480162
3289.3756,0.481665
3291.2393,0.482694
3293.1030,0.483313
3294.9666,0.484211
3296.8303,0.485649
3298.6940,0.486013
3300.5577,0.485697
3302.4213,0.487690
3304.2850,0.490502
3306.1487,0.490833
3308.0123,0.489408
3309.8760,0.490776
3311.7397,0.493543
3313.6033,0.494713
3315.4670,0.495685
3317.3307,0.496897
3319.1943,0.497575
3321.0580,0.499372
3322.9217,0.501501
3324.7854,0.501893
3326.6490,0.502119
3328.5127,0.502716
3330.3764,0.503225
3332.2400,0.505160
3334.1037,0.506793
3335.9674,0.507253
3337.8310,0.507185
3339.6947,0.506244
3341.5584,0.506561
3343.4220,0.507340
3345.2857,0.507205
3347.1494,0.508050
3349.0130,0.509924
3350.8767,0.511737
3352.7404,0.512571
3354.6041,0.512745
3356.4677,0.512256
3358.3314,0.512423
3360.1951,0.513731
3362.0587,0.514192
3363.9224,0.514835
3365.7861,0.515390
3367.6497,0.514172
3369.5134,0.513831
3371.3771,0.514861
3373.2407,0.515369
3375.1044,0.515482
3376.9681,0.516225
3378.8317,0.516961
3380.6954,0.518040
3382.5591,0.517645
3384.4228,0.516178
3386.2864,0.515989
3388.1501,0.516628
3390.0138,0.516923
3391.8774,0.518939
3393.7411,0.520602
3395.6048,0.519736
3397.4684,0.518496
3399.3321,0.519029
3401.1958,0.519515
3403.0594,0.518130
3404.9231,0.516743
3406.7868,0.517630
3408.6505,0.519225
3410.5141,0.517803
3412.3778,0.516398
3414.2415,0.518713
3416.1051,0.520750
3417.9688,0.519069
3419.8325,0.517394
3421.6961,0.517820
3423.5598,0.518093
3425.4235,0.517479
3427.2871,0.516793
3429.1508,0.516320
3431.0145,0.517047
3432.8781,0.518373
3434.7418,0.518331
3436.6055,0.518406
3438.4692,0.517511
3440.3328,0.516804
3442.1965,0.515370
3444.0602,0.513786
3445.9238,0.513207
3447.7875,0.512450
3449.6512,0.511721
3451.5148,0.511109
3453.3785,0.511200
3455.2422,0.509626
3457.1058,0.506614
3458.9695,0.506532
3460.8332,0.507148
3462.6969,0.504782
3464.5605,0.503046
3466.4242,0.502808
3468.2879,0.501836
3470.1515,0.500629
3472.0152,0.499989
3473.8789,0.500061
3475.7425,0.500291
3477.6062,0.499184
3479.4699,0.496640
3481.3335,0.495581
3483.1972,0.495678
3485.0609,0.495581
3486.9245,0.493666
3488.7882,0.491491
3490.6519,0.490750
3492.5156,0.489914
3494.3792,0.491222
3496.2429,0.493263
3498.1066,0.492153
3499.9702,0.491679
3501.8339,0.491968
3503.6976,0.490888
3505.5612,0.489550
3507.4249,0.488587
3509.2886,0.487377
3511.1522,0.488965
3513.0159,0.489696
3514.8796,0.486379
3516.7432,0.484057
3518.6069,0.484836
3520.4706,0.484655
3522.3343,0.484123
3524.1979,0.484996
3526.0616,0.485484
3527.9253,0.483452
3529.7889,0.482237
3531.6526,0.481749
3533.5163,0.480521
3535.3799,0.479223
3537.2436,0.478867
3539.1073,0.477656
3540.9709,0.476401
3542.8346,0.475766
3544.6983,0.474134
3546.5620,0.475292
3548.4256,0.475494
3550.2893,0.473246
3552.1530,0.472031
3554.0166,0.472577
3555.8803,0.471178
3557.7440,0.467983
3559.6076,0.468456
3561.4713,0.472539
3563.3350,0.474217
3565.1986,0.473165
3567.0623,0.472479
3568.9260,0.472716
3570.7896,0.469668
3572.6533,0.463296
3574.5170,0.461371
3576.3807,0.461265
3578.2443,0.460708
3580.1080,0.462193
3581.9717,0.464188
3583.8353,0.463899
3585.6990,0.461850
3587.5627,0.461718
3589.4263,0.464801
3591.2900,0.464250
3593.1537,0.459392
3595.0173,0.457901
3596.8810,0.458231
3598.7447,0.455063
3600.6084,0.452684
3602.4720,0.454207
3604.3357,0.455288
3606.1994,0.453608
3608.0630,0.455283
3609.9267,0.458928
3611.7904,0.459626
3613.6540,0.458083
3615.5177,0.457004
3617.3814,0.452987
3619.2450,0.451068
3621.1087,0.454659
3622.9724,0.456174
3624.8360,0.452652
3626.6997,0.448882
3628.5634,0.447404
3630.4271,0.451339
3632.2907,0.451220
3634.1544,0.443280
3636.0181,0.440964
3637.8817,0.439536
3639.7454,0.439283
3641.6091,0.442083
3643.4727,0.446000
3645.3364,0.449144
3647.2001,0.447827
3649.0637,0.448974
3650.9274,0.451706
3652.7911,0.449615
3654.6547,0.441106
3656.5184,0.433378
3658.3821,0.434132
3660.2458,0.432961
3662.1094,0.430716
3663.9731,0.432420
3665.8368,0.435273
3667.7004,0.436349
3669.5641,0.439226
3671.4278,0.447610
3673.2914,0.450290
3675.1551,0.442629
3677.0188,0.445302
3678.8824,0.445975
3680.7461,0.436795
3682.6098,0.434859
3684.4735,0.433834
3686.3371,0.432937
3688.2008,0.429246
3690.0645,0.429600
3691.9281,0.430582
3693.7918,0.428059
3695.6555,0.426310
3697.5191,0.425422
3699.3828,0.424759
3701.2465,0.423276
3703.1101,0.426185
3704.9738,0.429072
3706.8375,0.427417
3708.7011,0.427220
3710.5648,0.427639
3712.4285,0.427986
3714.2922,0.429985
3716.1558,0.429296
3718.0195,0.425201
3719.8832,0.424863
3721.7468,0.425436
3723.6105,0.424990
3725.4742,0.426438
3727.3378,0.430279
3729.2015,0.433500
3731.0652,0.431176
3732.9288,0.430448
3734.7925,0.434293
3736.6562,0.436424
3738.5199,0.442282
3740.3835,0.442868
3742.2472,0.440114
3744.1109,0.438557
3745.9745,0.446838
3747.8382,0.453142
3749.7019,0.443732
3751.5655,0.443023
3753.4292,0.444719
3755.2929,0.443052
3757.1565,0.437671
3759.0202,0.436080
3760.8839,0.438198
3762.7475,0.440491
3764.6112,0.438458
3766.4749,0.437474
3768.3386,0.438266
3770.2022,0.436291
3772.0659,0.438538
3773.9296,0.439635
3775.7932,0.437483
3777.6569,0.436546
3779.5206,0.436171
3781.3842,0.438747
3783.2479,0.439070
3785.1116,0.437265
3786.9752,0.437846
3788.8389,0.437544
3790.7026,0.438030
3792.5662,0.439194
3794.4299,0.441108
3796.2936,0.444403
3798.1573,0.447729
3800.0209,0.447758
3801.8846,0.444957
3803.7483,0.448942
3805.6119,0.447076
3807.4756,0.443316
3809.3393,0.448830
3811.2029,0.450692
3813.0666,0.449314
3814.9303,0.450827
3816.7939,0.453380
3818.6576,0.457572
3820.5213,0.452574
3822.3850,0.452377
3824.2486,0.457574
3826.1123,0.454249
3827.9760,0.453080
3829.8396,0.455749
3831.7033,0.457477
3833.5670,0.461296
3835.4306,0.462732
3837.2943,0.460491
3839.1580,0.460096
3841.0216,0.461977
3842.8853,0.461028
3844.7490,0.461101
3846.6126,0.465550
3848.4763,0.470161
3850.3400,0.470617
3852.2037,0.466994
3854.0673,0.466825
3855.9310,0.473443
3857.7947,0.474682
3859.6583,0.473012
3861.5220,0.472123
3863.3857,0.473624
3865.2493,0.477361
3867.1130,0.480345
3868.9767,0.479149
3870.8403,0.476011
3872.7040,0.479710
3874.5677,0.478653
3876.4314,0.481848
3878.2950,0.481927
3880.1587,0.479448
3882.0224,0.482953
3883.8860,0.486647
3885.7497,0.483675
3887.6134,0.485841
3889.4770,0.487346
3891.3407,0.483387
3893.2044,0.486886
3895.0680,0.491737
3896.9317,0.493405
3898.7954,0.496630
3900.6590,0.498664
3902.5227,0.498768
3904.3864,0.496439
3906.2501,0.495972
3908.1137,0.495093
3909.9774,0.494028
3911.8411,0.496442
3913.7047,0.498811
3915.5684,0.498708
3917.4321,0.500662
3919.2957,0.503900
3921.1594,0.503485
3923.0231,0.503264
3924.8867,0.504666
3926.7504,0.507657
3928.6141,0.509529
3930.4777,0.508898
3932.3414,0.507753
3934.2051,0.507750
3936.0688,0.509798
3937.9324,0.511757
3939.7961,0.513770
3941.6598,0.514900
3943.5234,0.517194
3945.3871,0.519294
3947.2508,0.517777
3949.1144,0.517305
3950.9781,0.520284
3952.8418,0.521202
3954.7054,0.521401
3956.5691,0.522230
3958.4328,0.522976
3960.2965,0.522182
3962.1601,0.523142
3964.0238,0.524806
3965.8875,0.525745
3967.7511,0.525710
3969.6148,0.526531
3971.4785,0.528996
3973.3421,0.530888
3975.2058,0.531634
3977.0695,0.532478
3978.9331,0.532243
3980.7968,0.533513
3982.6605,0.534587
3984.5241,0.536118
3986.3878,0.536587
3988.2515,0.536103
3990.1152,0.537063
3991.9788,0.539619
3993.8425,0.539521
3995.7062,0.539647
3997.5698,0.541372
3999.4335,0.543405
